wavelength, flux
          229.,          0.
          234.,          0.
          243.,          0.
          252.,          0.
          256.,          0.
          260.,          0.
          266.,          0.
          275.,          0.
          283.,          0.
          293.,          0.
          301.,          0.
          309.,          0.
          325.,          0.
          342.,          0.
          351.,          0.
          356.,          0.
          365.,          0.
          375.,          0.
          384.,          0.
          400.,          0.
          415.,          0.
          425.,          0.
          445.,          0.
          472.,          0.
          494.,          0.
          506.,          0.
          516.,          0.
          540.,          0.
          564.,          0.
          587.,          0.
          612.,          0.
          640.,          0.
          671.,          0.
          705.,          0.
          736.,          0.
          770.,          0.
          810.,          0.
          850.,          0.
          890.,          0.
          920.,          0.
          940.,          0.
          962.,          0.
          987.,          0.
         1012.,          0.
         1037.,          0.
         1062.,          0.
         1087.,          0.
         1112.,          0.
         1120.,          0.
         1140.,          0.
         1160.,          0.
         1180.,          0.
         1200.,          0.
         1220.,          0.
         1240.,          0.
         1260.,          0.
         1280.,          0.
         1300.,          0.
         1320.,          0.
         1340.,          0.
         1360.,          0.
         1380.,          0.
         1400.,          0.
         1420.,          0.
         1440.,          0.
         1460.,          0.
         1480.,          0.
         1500.,          0.
         1520.,          0.
         1540.,          0.
         1560.,          0.
         1580.,          0.
         1600.,          0.
         1620.,          0.
         1640.,          0.
         1660.,          0.
         1680.,          0.
         1700.,          0.
         1720.,          0.
         1740.,          0.
         1760.,          0.
         1780.,          0.
         1800.,          0.
         1820.,          0.
         1840.,          0.
         1860.,          0.
         1880.,          0.
         1900.,          0.
         1920.,          0.
         1940.,          0.
         1960.,          0.
         1980.,          0.
         2000.,   1.706E-12
         2002.,   1.706E-12
         2005.,   1.783E-12
         2008.,   1.820E-12
         2010.,   1.729E-12
         2012.,   1.769E-12
         2015.,   1.881E-12
         2018.,   1.958E-12
         2020.,   2.036E-12
         2022.,   2.323E-12
         2025.,   2.469E-12
         2027.,   2.349E-12
         2030.,   2.330E-12
         2032.,   2.358E-12
         2035.,   2.313E-12
         2038.,   2.217E-12
         2040.,   1.887E-12
         2042.,   1.670E-12
         2045.,   1.620E-12
         2048.,   1.580E-12
         2050.,   1.562E-12
         2052.,   1.534E-12
         2055.,   1.529E-12
         2058.,   1.729E-12
         2060.,   1.936E-12
         2062.,   2.334E-12
         2065.,   2.613E-12
         2067.,   2.742E-12
         2070.,   2.801E-12
         2072.,   2.838E-12
         2075.,   2.972E-12
         2077.,   3.137E-12
         2080.,   3.131E-12
         2082.,   3.114E-12
         2085.,   3.086E-12
         2088.,   3.048E-12
         2090.,   2.997E-12
         2092.,   3.199E-12
         2095.,   3.433E-12
         2098.,   3.539E-12
         2100.,   3.613E-12
         2102.,   3.452E-12
         2105.,   3.318E-12
         2107.,   3.217E-12
         2110.,   3.236E-12
         2112.,   3.278E-12
         2115.,   3.389E-12
         2118.,   3.512E-12
         2120.,   3.594E-12
         2122.,   3.673E-12
         2125.,   3.752E-12
         2128.,   3.906E-12
         2130.,   4.142E-12
         2133.,   4.316E-12
         2135.,   4.346E-12
         2138.,   4.026E-12
         2140.,   3.778E-12
         2142.,   3.818E-12
         2145.,   3.824E-12
         2147.,   3.801E-12
         2150.,   3.727E-12
         2153.,   3.587E-12
         2155.,   3.586E-12
         2157.,   3.651E-12
         2160.,   3.842E-12
         2162.,   3.964E-12
         2165.,   3.722E-12
         2168.,   3.714E-12
         2170.,   3.889E-12
         2173.,   3.976E-12
         2175.,   4.059E-12
         2177.,   4.071E-12
         2180.,   4.083E-12
         2182.,   4.119E-12
         2185.,   4.175E-12
         2187.,   4.243E-12
         2190.,   4.361E-12
         2193.,   4.526E-12
         2195.,   4.847E-12
         2198.,   5.056E-12
         2200.,   4.999E-12
         2202.,   4.912E-12
         2205.,   4.728E-12
         2208.,   4.513E-12
         2210.,   4.282E-12
         2213.,   4.086E-12
         2215.,   3.890E-12
         2218.,   3.629E-12
         2220.,   3.486E-12
         2222.,   3.657E-12
         2225.,   3.952E-12
         2227.,   4.304E-12
         2230.,   4.739E-12
         2233.,   5.228E-12
         2235.,   5.688E-12
         2237.,   6.129E-12
         2240.,   6.541E-12
         2242.,   6.984E-12
         2245.,   7.489E-12
         2248.,   7.853E-12
         2250.,   8.142E-12
         2253.,   8.282E-12
         2255.,   8.421E-12
         2257.,   8.513E-12
         2260.,   8.526E-12
         2262.,   8.398E-12
         2265.,   8.188E-12
         2267.,   7.952E-12
         2270.,   7.700E-12
         2273.,   7.465E-12
         2275.,   7.506E-12
         2277.,   7.479E-12
         2280.,   7.379E-12
         2282.,   7.292E-12
         2285.,   7.224E-12
         2288.,   7.117E-12
         2290.,   6.995E-12
         2293.,   6.854E-12
         2295.,   6.702E-12
         2298.,   6.469E-12
         2300.,   6.368E-12
         2302.,   6.435E-12
         2305.,   6.403E-12
         2307.,   6.354E-12
         2310.,   6.545E-12
         2313.,   6.867E-12
         2315.,   7.473E-12
         2317.,   8.014E-12
         2320.,   8.504E-12
         2322.,   9.140E-12
         2325.,   9.935E-12
         2327.,   1.086E-11
         2330.,   1.158E-11
         2333.,   1.176E-11
         2335.,   1.193E-11
         2337.,   1.209E-11
         2340.,   1.219E-11
         2342.,   1.223E-11
         2345.,   1.196E-11
         2347.,   1.166E-11
         2350.,   1.158E-11
         2353.,   1.163E-11
         2355.,   1.202E-11
         2357.,   1.218E-11
         2360.,   1.221E-11
         2362.,   1.231E-11
         2365.,   1.248E-11
         2368.,   1.260E-11
         2370.,   1.273E-11
         2373.,   1.275E-11
         2375.,   1.276E-11
         2377.,   1.282E-11
         2380.,   1.283E-11
         2383.,   1.279E-11
         2385.,   1.273E-11
         2387.,   1.263E-11
         2390.,   1.270E-11
         2393.,   1.272E-11
         2395.,   1.262E-11
         2397.,   1.242E-11
         2400.,   1.194E-11
         2403.,   1.177E-11
         2405.,   1.177E-11
         2407.,   1.160E-11
         2410.,   1.142E-11
         2413.,   1.130E-11
         2415.,   1.132E-11
         2417.,   1.170E-11
         2420.,   1.207E-11
         2423.,   1.245E-11
         2425.,   1.314E-11
         2427.,   1.402E-11
         2430.,   1.473E-11
         2433.,   1.530E-11
         2435.,   1.565E-11
         2437.,   1.591E-11
         2440.,   1.599E-11
         2443.,   1.614E-11
         2445.,   1.636E-11
         2448.,   1.692E-11
         2450.,   1.747E-11
         2452.,   1.799E-11
         2455.,   1.839E-11
         2457.,   1.860E-11
         2460.,   1.815E-11
         2463.,   1.750E-11
         2465.,   1.711E-11
         2467.,   1.684E-11
         2470.,   1.679E-11
         2473.,   1.692E-11
         2475.,   1.724E-11
         2477.,   1.728E-11
         2480.,   1.688E-11
         2483.,   1.638E-11
         2485.,   1.579E-11
         2487.,   1.496E-11
         2490.,   1.436E-11
         2493.,   1.543E-11
         2495.,   1.617E-11
         2497.,   1.649E-11
         2500.,   1.669E-11
         2502.,   1.709E-11
         2505.,   1.749E-11
         2507.,   1.764E-11
         2510.,   1.753E-11
         2513.,   1.673E-11
         2515.,   1.617E-11
         2518.,   1.546E-11
         2520.,   1.431E-11
         2522.,   1.322E-11
         2525.,   1.494E-11
         2527.,   1.782E-11
         2530.,   1.969E-11
         2532.,   2.251E-11
         2535.,   2.643E-11
         2538.,   2.851E-11
         2540.,   2.781E-11
         2542.,   2.835E-11
         2545.,   2.926E-11
         2548.,   2.991E-11
         2550.,   3.052E-11
         2552.,   3.065E-11
         2555.,   3.047E-11
         2558.,   2.954E-11
         2560.,   2.830E-11
         2562.,   2.814E-11
         2565.,   2.890E-11
         2567.,   3.037E-11
         2570.,   3.153E-11
         2573.,   3.335E-11
         2575.,   2.985E-11
         2577.,   2.725E-11
         2580.,   2.627E-11
         2582.,   2.606E-11
         2585.,   2.551E-11
         2587.,   2.791E-11
         2590.,   3.240E-11
         2593.,   3.478E-11
         2595.,   3.580E-11
         2598.,   3.590E-11
         2600.,   3.673E-11
         2602.,   3.708E-11
         2605.,   3.677E-11
         2607.,   3.640E-11
         2610.,   3.692E-11
         2612.,   3.807E-11
         2615.,   3.807E-11
         2618.,   3.846E-11
         2620.,   3.950E-11
         2622.,   4.082E-11
         2625.,   4.147E-11
         2627.,   4.354E-11
         2630.,   4.673E-11
         2633.,   4.927E-11
         2635.,   5.338E-11
         2638.,   6.068E-11
         2640.,   6.643E-11
         2642.,   6.853E-11
         2645.,   6.983E-11
         2647.,   7.078E-11
         2650.,   7.050E-11
         2652.,   7.054E-11
         2655.,   7.213E-11
         2657.,   7.423E-11
         2660.,   7.645E-11
         2662.,   7.869E-11
         2665.,   8.084E-11
         2667.,   7.990E-11
         2670.,   7.857E-11
         2673.,   7.797E-11
         2675.,   7.746E-11
         2677.,   7.673E-11
         2680.,   7.781E-11
         2682.,   8.122E-11
         2685.,   8.149E-11
         2687.,   8.043E-11
         2690.,   7.909E-11
         2692.,   7.846E-11
         2695.,   7.700E-11
         2698.,   7.719E-11
         2700.,   7.924E-11
         2702.,   8.162E-11
         2705.,   8.500E-11
         2707.,   8.836E-11
         2710.,   8.949E-11
         2713.,   8.813E-11
         2715.,   8.497E-11
         2718.,   7.926E-11
         2720.,   7.446E-11
         2722.,   7.363E-11
         2725.,   7.595E-11
         2727.,   7.960E-11
         2730.,   8.339E-11
         2732.,   8.484E-11
         2735.,   8.171E-11
         2737.,   7.691E-11
         2740.,   7.197E-11
         2742.,   7.002E-11
         2745.,   6.994E-11
         2747.,   7.305E-11
         2750.,   7.770E-11
         2753.,   8.293E-11
         2755.,   8.822E-11
         2758.,   9.325E-11
         2760.,   9.919E-11
         2762.,   1.043E-10
         2765.,   1.069E-10
         2767.,   1.099E-10
         2770.,   1.124E-10
         2772.,   1.126E-10
         2775.,   1.107E-10
         2778.,   1.083E-10
         2780.,   1.042E-10
         2782.,   9.788E-11
         2785.,   9.147E-11
         2787.,   8.718E-11
         2790.,   8.522E-11
         2793.,   8.395E-11
         2795.,   8.252E-11
         2798.,   8.261E-11
         2800.,   8.391E-11
         2802.,   8.280E-11
         2805.,   8.212E-11
         2807.,   8.428E-11
         2810.,   9.214E-11
         2812.,   1.010E-10
         2815.,   1.099E-10
         2817.,   1.198E-10
         2820.,   1.303E-10
         2823.,   1.346E-10
         2825.,   1.365E-10
         2827.,   1.365E-10
         2830.,   1.357E-10
         2833.,   1.342E-10
         2835.,   1.344E-10
         2838.,   1.322E-10
         2840.,   1.238E-10
         2842.,   1.150E-10
         2845.,   1.008E-10
         2847.,   8.306E-11
         2850.,   6.738E-11
         2852.,   6.243E-11
         2855.,   6.354E-11
         2858.,   7.151E-11
         2860.,   8.674E-11
         2862.,   1.099E-10
         2865.,   1.290E-10
         2867.,   1.436E-10
         2870.,   1.567E-10
         2873.,   1.650E-10
         2875.,   1.591E-10
         2878.,   1.605E-10
         2880.,   1.653E-10
         2883.,   1.738E-10
         2885.,   1.891E-10
         2887.,   2.089E-10
         2890.,   2.334E-10
         2892.,   2.555E-10
         2895.,   2.797E-10
         2898.,   3.085E-10
         2900.,   3.391E-10
         2903.,   3.571E-10
         2905.,   3.680E-10
         2907.,   3.730E-10
         2910.,   3.753E-10
         2913.,   3.772E-10
         2915.,   3.838E-10
         2918.,   3.866E-10
         2920.,   3.794E-10
         2923.,   3.690E-10
         2925.,   3.611E-10
         2927.,   3.610E-10
         2930.,   3.614E-10
         2932.,   3.643E-10
         2935.,   3.651E-10
         2938.,   3.676E-10
         2940.,   3.649E-10
         2942.,   3.517E-10
         2945.,   3.477E-10
         2948.,   3.520E-10
         2950.,   3.667E-10
         2952.,   3.702E-10
         2955.,   3.796E-10
         2958.,   3.840E-10
         2960.,   3.752E-10
         2963.,   3.535E-10
         2965.,   3.187E-10
         2967.,   2.945E-10
         2970.,   2.877E-10
         2972.,   3.028E-10
         2975.,   3.255E-10
         2978.,   3.410E-10
         2980.,   3.407E-10
         2983.,   3.297E-10
         2985.,   3.174E-10
         2987.,   3.027E-10
         2990.,   2.964E-10
         2993.,   3.020E-10
         2995.,   2.950E-10
         2998.,   2.797E-10
         3000.,   2.625E-10
         3003.,   2.488E-10
         3005.,   2.465E-10
         3007.,   2.568E-10
         3010.,   2.710E-10
         3012.,   2.779E-10
         3015.,   2.760E-10
         3018.,   2.680E-10
         3020.,   2.653E-10
         3023.,   2.768E-10
         3025.,   2.978E-10
         3027.,   3.456E-10
         3030.,   3.969E-10
         3032.,   4.332E-10
         3035.,   4.378E-10
         3038.,   4.367E-10
         3040.,   4.294E-10
         3043.,   4.201E-10
         3045.,   4.263E-10
         3048.,   4.452E-10
         3050.,   4.577E-10
         3052.,   4.561E-10
         3055.,   4.416E-10
         3058.,   4.219E-10
         3060.,   4.016E-10
         3063.,   3.855E-10
         3065.,   3.910E-10
         3067.,   4.182E-10
         3070.,   4.478E-10
         3073.,   4.771E-10
         3075.,   5.040E-10
         3077.,   5.257E-10
         3080.,   5.429E-10
         3083.,   5.552E-10
         3085.,   5.494E-10
         3087.,   5.305E-10
         3090.,   5.082E-10
         3092.,   4.756E-10
         3095.,   4.402E-10
         3098.,   4.371E-10
         3100.,   4.641E-10
         3103.,   5.112E-10
         3105.,   5.805E-10
         3107.,   6.586E-10
         3110.,   7.119E-10
         3112.,   7.325E-10
         3115.,   7.186E-10
         3118.,   6.857E-10
         3120.,   6.445E-10
         3123.,   6.123E-10
         3125.,   5.933E-10
         3127.,   5.961E-10
         3130.,   6.062E-10
         3132.,   6.277E-10
         3135.,   6.546E-10
         3138.,   6.760E-10
         3140.,   6.811E-10
         3143.,   6.771E-10
         3145.,   6.767E-10
         3147.,   6.769E-10
         3150.,   6.709E-10
         3152.,   6.618E-10
         3155.,   6.445E-10
         3157.,   6.251E-10
         3160.,   6.050E-10
         3163.,   6.121E-10
         3165.,   6.416E-10
         3167.,   6.979E-10
         3170.,   7.614E-10
         3173.,   8.152E-10
         3175.,   8.331E-10
         3177.,   8.007E-10
         3180.,   7.728E-10
         3183.,   7.484E-10
         3185.,   7.316E-10
         3187.,   7.181E-10
         3190.,   7.348E-10
         3192.,   7.499E-10
         3195.,   7.497E-10
         3198.,   7.534E-10
         3200.,   7.708E-10
         3202.,   7.618E-10
         3205.,   7.529E-10
         3208.,   7.439E-10
         3210.,   7.349E-10
         3212.,   7.259E-10
         3215.,   7.170E-10
         3217.,   7.080E-10
         3220.,   6.990E-10
         3223.,   7.241E-10
         3225.,   7.492E-10
         3227.,   7.743E-10
         3230.,   7.993E-10
         3233.,   8.244E-10
         3235.,   8.495E-10
         3237.,   8.746E-10
         3240.,   8.996E-10
         3260.,    1.116E-9
         3270.,    1.114E-9
         3280.,    1.058E-9
         3290.,    1.132E-9
         3300.,    1.228E-9
         3310.,    1.099E-9
         3320.,    1.062E-9
         3330.,    1.081E-9
         3340.,    1.099E-9
         3350.,    1.140E-9
         3360.,    1.034E-9
         3370.,   8.737E-10
         3380.,   9.264E-10
         3390.,    1.058E-9
         3400.,    1.172E-9
         3410.,    1.172E-9
         3420.,    1.173E-9
         3430.,    1.250E-9
         3440.,    1.087E-9
         3450.,    1.039E-9
         3460.,    1.179E-9
         3470.,    1.154E-9
         3480.,    1.157E-9
         3490.,    1.135E-9
         3500.,    1.279E-9
         3510.,    1.344E-9
         3520.,    1.251E-9
         3530.,    1.279E-9
         3540.,    1.422E-9
         3550.,    1.418E-9
         3560.,    1.293E-9
         3570.,    1.128E-9
         3580.,   8.968E-10
         3590.,   9.672E-10
         3600.,    1.306E-9
         3610.,    1.322E-9
         3620.,    1.286E-9
         3630.,    1.328E-9
         3640.,    1.398E-9
         3650.,    1.465E-9
         3660.,    1.647E-9
         3670.,    1.711E-9
         3680.,    1.558E-9
         3690.,    1.572E-9
         3700.,    1.648E-9
         3710.,    1.651E-9
         3720.,    1.470E-9
         3730.,    1.227E-9
         3740.,    1.176E-9
         3750.,    1.273E-9
         3760.,    1.339E-9
         3770.,    1.525E-9
         3780.,    1.775E-9
         3790.,    1.588E-9
         3800.,    1.446E-9
         3810.,    1.462E-9
         3820.,    1.159E-9
         3830.,   8.785E-10
         3840.,   9.714E-10
         3850.,    1.064E-9
         3860.,    1.064E-9
         3870.,    1.028E-9
         3880.,    1.083E-9
         3890.,    1.317E-9
         3900.,    1.604E-9
         3910.,    1.739E-9
         3920.,    1.700E-9
         3930.,    1.058E-9
         3940.,   9.791E-10
         3950.,    1.599E-9
         3960.,    1.599E-9
         3970.,    1.187E-9
         3980.,    1.757E-9
         3990.,    2.384E-9
         4000.,    2.554E-9
         4010.,    2.623E-9
         4020.,    2.689E-9
         4030.,    2.624E-9
         4040.,    2.501E-9
         4050.,    2.572E-9
         4060.,    2.539E-9
         4070.,    2.475E-9
         4080.,    2.674E-9
         4090.,    2.884E-9
         4100.,    2.794E-9
         4110.,    2.756E-9
         4120.,    2.865E-9
         4130.,    2.720E-9
         4140.,    2.669E-9
         4150.,    2.631E-9
         4160.,    2.717E-9
         4170.,    2.686E-9
         4180.,    2.574E-9
         4190.,    2.608E-9
         4200.,    2.621E-9
         4210.,    2.685E-9
         4220.,    2.698E-9
         4230.,    2.670E-9
         4240.,    2.791E-9
         4250.,    2.787E-9
         4260.,    2.728E-9
         4270.,    2.594E-9
         4280.,    2.519E-9
         4290.,    2.500E-9
         4300.,    2.082E-9
         4310.,    2.153E-9
         4320.,    2.676E-9
         4330.,    2.979E-9
         4340.,    3.013E-9
         4350.,    2.944E-9
         4360.,    3.087E-9
         4370.,    3.078E-9
         4380.,    2.790E-9
         4390.,    2.757E-9
         4400.,    2.877E-9
         4410.,    3.017E-9
         4420.,    3.220E-9
         4430.,    3.259E-9
         4440.,    3.270E-9
         4450.,    3.273E-9
         4460.,    3.176E-9
         4470.,    3.330E-9
         4480.,    3.502E-9
         4490.,    3.439E-9
