wavelength, flux
          229.,          0.
          234.,          0.
          243.,          0.
          252.,          0.
          256.,          0.
          260.,          0.
          266.,          0.
          275.,          0.
          283.,          0.
          293.,          0.
          301.,          0.
          309.,          0.
          325.,          0.
          342.,          0.
          351.,          0.
          356.,          0.
          365.,          0.
          375.,          0.
          384.,          0.
          400.,          0.
          415.,          0.
          425.,          0.
          445.,          0.
          472.,          0.
          494.,          0.
          506.,          0.
          516.,          0.
          540.,          0.
          564.,          0.
          587.,          0.
          612.,          0.
          640.,          0.
          671.,          0.
          705.,          0.
          736.,          0.
          770.,          0.
          810.,          0.
          850.,          0.
          890.,          0.
          920.,          0.
          940.,          0.
          962.,          0.
          987.,          0.
         1012.,          0.
         1037.,          0.
         1062.,          0.
         1087.,          0.
         1112.,          0.
         1120.,          0.
         1140.,          0.
         1160.,          0.
         1180.,          0.
         1200.,          0.
         1220.,          0.
         1240.,          0.
         1260.,          0.
         1280.,          0.
         1300.,          0.
         1320.,          0.
         1340.,          0.
         1360.,          0.
         1380.,          0.
         1400.,          0.
         1420.,          0.
         1440.,          0.
         1460.,          0.
         1480.,          0.
         1500.,          0.
         1520.,          0.
         1540.,          0.
         1560.,          0.
         1580.,          0.
         1600.,          0.
         1620.,          0.
         1640.,          0.
         1660.,          0.
         1680.,          0.
         1700.,          0.
         1720.,          0.
         1740.,          0.
         1760.,          0.
         1780.,          0.
         1800.,          0.
         1820.,          0.
         1840.,          0.
         1860.,          0.
         1880.,          0.
         1900.,          0.
         1920.,          0.
         1940.,          0.
         1960.,          0.
         1980.,          0.
         2000.,   2.149E-12
         2002.,   2.149E-12
         2005.,   2.587E-12
         2008.,   2.143E-12
         2010.,   3.820E-12
         2012.,   4.390E-12
         2015.,   4.089E-12
         2018.,   3.871E-12
         2020.,   3.745E-12
         2022.,   1.970E-12
         2025.,   7.519E-13
         2027.,   1.543E-12
         2030.,   2.164E-12
         2032.,   2.102E-12
         2035.,   2.858E-12
         2038.,   4.159E-12
         2040.,   3.589E-12
         2042.,   3.019E-12
         2045.,   2.977E-12
         2048.,   3.267E-12
         2050.,   4.168E-12
         2052.,   4.633E-12
         2055.,   4.929E-12
         2058.,   4.372E-12
         2060.,   3.337E-12
         2062.,   3.767E-12
         2065.,   4.726E-12
         2067.,   6.518E-12
         2070.,   7.423E-12
         2072.,   6.052E-12
         2075.,   5.520E-12
         2077.,   5.509E-12
         2080.,   6.947E-12
         2082.,   8.385E-12
         2085.,   8.886E-12
         2088.,   8.817E-12
         2090.,   7.894E-12
         2092.,   7.378E-12
         2095.,   6.964E-12
         2098.,   6.671E-12
         2100.,   6.337E-12
         2102.,   5.361E-12
         2105.,   4.500E-12
         2107.,   3.785E-12
         2110.,   2.695E-12
         2112.,   9.389E-13
         2115.,   1.722E-12
         2118.,   3.134E-12
         2120.,   3.630E-12
         2122.,   4.194E-12
         2125.,   5.544E-12
         2128.,   6.703E-12
         2130.,   7.658E-12
         2133.,   8.214E-12
         2135.,   8.716E-12
         2138.,   9.053E-12
         2140.,   8.999E-12
         2142.,   7.541E-12
         2145.,   5.426E-12
         2147.,   2.873E-12
         2150.,   1.723E-12
         2153.,   1.868E-12
         2155.,   2.254E-12
         2157.,   2.317E-12
         2160.,   1.215E-12
         2162.,   5.777E-13
         2165.,   2.376E-12
         2168.,   3.172E-12
         2170.,   3.182E-12
         2173.,   2.902E-12
         2175.,   2.610E-12
         2177.,   2.142E-12
         2180.,   1.791E-12
         2182.,   1.801E-12
         2185.,   1.489E-12
         2187.,   1.123E-12
         2190.,   7.573E-13
         2193.,   3.913E-13
         2195.,   1.131E-12
         2198.,   1.871E-12
         2200.,   2.877E-12
         2202.,   3.645E-12
         2205.,   3.587E-12
         2208.,   3.629E-12
         2210.,   3.727E-12
         2213.,   3.115E-12
         2215.,   1.945E-12
         2218.,   2.041E-12
         2220.,   1.798E-12
         2222.,   8.618E-13
         2225.,   9.511E-14
         2227.,   1.426E-13
         2230.,   1.902E-13
         2233.,   2.377E-13
         2235.,   2.853E-13
         2237.,   3.328E-13
         2240.,   3.659E-13
         2242.,   1.147E-12
         2245.,   3.049E-12
         2248.,   3.978E-12
         2250.,   4.528E-12
         2253.,   5.240E-12
         2255.,   6.072E-12
         2257.,   7.594E-12
         2260.,   8.115E-12
         2262.,   7.363E-12
         2265.,   6.746E-12
         2267.,   6.367E-12
         2270.,   6.580E-12
         2273.,   6.998E-12
         2275.,   7.511E-12
         2277.,   7.943E-12
         2280.,   7.444E-12
         2282.,   6.703E-12
         2285.,   5.699E-12
         2288.,   4.453E-12
         2290.,   3.173E-12
         2293.,   2.699E-12
         2295.,   2.376E-12
         2298.,   1.690E-12
         2300.,   1.378E-12
         2302.,   1.411E-12
         2305.,   1.626E-12
         2307.,   2.072E-12
         2310.,   2.066E-12
         2313.,   2.090E-12
         2315.,   2.484E-12
         2317.,   2.972E-12
         2320.,   3.956E-12
         2322.,   5.672E-12
         2325.,   7.964E-12
         2327.,   9.235E-12
         2330.,   1.046E-11
         2333.,   1.144E-11
         2335.,   1.188E-11
         2337.,   1.104E-11
         2340.,   1.030E-11
         2342.,   9.622E-12
         2345.,   8.058E-12
         2347.,   5.678E-12
         2350.,   4.298E-12
         2353.,   3.488E-12
         2355.,   3.703E-12
         2357.,   4.356E-12
         2360.,   6.399E-12
         2362.,   7.185E-12
         2365.,   7.317E-12
         2368.,   8.715E-12
         2370.,   1.011E-11
         2373.,   9.766E-12
         2375.,   1.016E-11
         2377.,   1.201E-11
         2380.,   1.168E-11
         2383.,   1.067E-11
         2385.,   1.001E-11
         2387.,   9.573E-12
         2390.,   9.552E-12
         2393.,   9.531E-12
         2395.,   9.649E-12
         2397.,   8.763E-12
         2400.,   5.720E-12
         2403.,   5.061E-12
         2405.,   5.331E-12
         2407.,   3.476E-12
         2410.,   5.844E-13
         2413.,   1.509E-12
         2415.,   2.585E-12
         2417.,   3.853E-12
         2420.,   5.647E-12
         2423.,   8.379E-12
         2425.,   9.204E-12
         2427.,   9.418E-12
         2430.,   9.533E-12
         2433.,   9.647E-12
         2435.,   7.509E-12
         2437.,   5.814E-12
         2440.,   4.785E-12
         2443.,   5.281E-12
         2445.,   6.158E-12
         2448.,   7.348E-12
         2450.,   8.546E-12
         2452.,   8.914E-12
         2455.,   9.568E-12
         2457.,   1.049E-11
         2460.,   1.136E-11
         2463.,   1.216E-11
         2465.,   1.288E-11
         2467.,   1.304E-11
         2470.,   1.145E-11
         2473.,   1.022E-11
         2475.,   1.088E-11
         2477.,   1.117E-11
         2480.,   1.107E-11
         2483.,   1.201E-11
         2485.,   1.308E-11
         2487.,   1.054E-11
         2490.,   8.072E-12
         2493.,   9.447E-12
         2495.,   9.407E-12
         2497.,   8.422E-12
         2500.,   8.582E-12
         2502.,   9.800E-12
         2505.,   9.805E-12
         2507.,   9.955E-12
         2510.,   1.064E-11
         2513.,   1.117E-11
         2515.,   1.123E-11
         2518.,   1.011E-11
         2520.,   8.326E-12
         2522.,   7.660E-12
         2525.,   7.041E-12
         2527.,   8.546E-12
         2530.,   1.048E-11
         2532.,   1.277E-11
         2535.,   1.416E-11
         2538.,   1.512E-11
         2540.,   1.536E-11
         2542.,   1.512E-11
         2545.,   1.583E-11
         2548.,   1.617E-11
         2550.,   1.593E-11
         2552.,   1.557E-11
         2555.,   1.494E-11
         2558.,   1.471E-11
         2560.,   1.475E-11
         2562.,   1.562E-11
         2565.,   1.649E-11
         2567.,   1.743E-11
         2570.,   1.777E-11
         2573.,   1.705E-11
         2575.,   1.467E-11
         2577.,   1.178E-11
         2580.,   9.650E-12
         2582.,   8.006E-12
         2585.,   7.774E-12
         2587.,   8.896E-12
         2590.,   1.148E-11
         2593.,   1.321E-11
         2595.,   1.363E-11
         2598.,   1.337E-11
         2600.,   1.293E-11
         2602.,   1.145E-11
         2605.,   8.407E-12
         2607.,   9.059E-12
         2610.,   1.064E-11
         2612.,   1.286E-11
         2615.,   1.566E-11
         2618.,   2.078E-11
         2620.,   2.327E-11
         2622.,   2.335E-11
         2625.,   2.110E-11
         2627.,   1.589E-11
         2630.,   1.675E-11
         2633.,   1.939E-11
         2635.,   2.402E-11
         2638.,   2.965E-11
         2640.,   4.058E-11
         2642.,   4.238E-11
         2645.,   3.700E-11
         2647.,   3.525E-11
         2650.,   3.400E-11
         2652.,   3.081E-11
         2655.,   2.909E-11
         2657.,   3.522E-11
         2660.,   3.743E-11
         2662.,   3.701E-11
         2665.,   3.705E-11
         2667.,   3.752E-11
         2670.,   3.670E-11
         2673.,   3.577E-11
         2675.,   3.735E-11
         2677.,   3.786E-11
         2680.,   3.343E-11
         2682.,   3.403E-11
         2685.,   3.746E-11
         2687.,   3.726E-11
         2690.,   3.420E-11
         2692.,   4.050E-11
         2695.,   4.402E-11
         2698.,   3.940E-11
         2700.,   3.503E-11
         2702.,   3.168E-11
         2705.,   3.142E-11
         2707.,   3.322E-11
         2710.,   3.482E-11
         2713.,   3.643E-11
         2715.,   3.964E-11
         2718.,   3.848E-11
         2720.,   2.771E-11
         2722.,   2.504E-11
         2725.,   2.552E-11
         2727.,   2.636E-11
         2730.,   2.761E-11
         2732.,   3.407E-11
         2735.,   3.700E-11
         2737.,   3.544E-11
         2740.,   3.461E-11
         2742.,   3.509E-11
         2745.,   3.479E-11
         2747.,   3.432E-11
         2750.,   3.593E-11
         2753.,   3.755E-11
         2755.,   4.332E-11
         2758.,   4.725E-11
         2760.,   4.841E-11
         2762.,   4.871E-11
         2765.,   4.879E-11
         2767.,   4.984E-11
         2770.,   5.125E-11
         2772.,   5.261E-11
         2775.,   5.472E-11
         2778.,   5.751E-11
         2780.,   5.581E-11
         2782.,   4.841E-11
         2785.,   4.909E-11
         2787.,   5.549E-11
         2790.,   8.377E-11
         2793.,   1.133E-10
         2795.,   1.567E-10
         2798.,   1.998E-10
         2800.,   2.426E-10
         2802.,   2.265E-10
         2805.,   2.024E-10
         2807.,   1.618E-10
         2810.,   1.174E-10
         2812.,   7.444E-11
         2815.,   5.236E-11
         2817.,   4.420E-11
         2820.,   4.350E-11
         2823.,   4.968E-11
         2825.,   5.000E-11
         2827.,   5.050E-11
         2830.,   5.247E-11
         2833.,   5.347E-11
         2835.,   5.137E-11
         2838.,   5.192E-11
         2840.,   5.454E-11
         2842.,   5.887E-11
         2845.,   6.327E-11
         2847.,   6.513E-11
         2850.,   6.736E-11
         2852.,   7.143E-11
         2855.,   7.048E-11
         2858.,   6.717E-11
         2860.,   6.604E-11
         2862.,   6.637E-11
         2865.,   6.663E-11
         2867.,   6.727E-11
         2870.,   6.846E-11
         2873.,   7.186E-11
         2875.,   7.992E-11
         2878.,   7.781E-11
         2880.,   7.174E-11
         2883.,   6.994E-11
         2885.,   7.053E-11
         2887.,   6.639E-11
         2890.,   6.459E-11
         2892.,   6.733E-11
         2895.,   7.048E-11
         2898.,   7.471E-11
         2900.,   7.323E-11
         2903.,   6.959E-11
         2905.,   7.176E-11
         2907.,   7.392E-11
         2910.,   8.017E-11
         2913.,   8.719E-11
         2915.,   9.536E-11
         2918.,   9.892E-11
         2920.,   1.013E-10
         2923.,   9.748E-11
         2925.,   9.265E-11
         2927.,   9.834E-11
         2930.,   1.029E-10
         2932.,   1.061E-10
         2935.,   1.107E-10
         2938.,   1.177E-10
         2940.,   1.069E-10
         2942.,   9.151E-11
         2945.,   8.192E-11
         2948.,   7.247E-11
         2950.,   6.464E-11
         2952.,   6.823E-11
         2955.,   8.417E-11
         2958.,   8.710E-11
         2960.,   8.825E-11
         2963.,   8.607E-11
         2965.,   8.074E-11
         2967.,   6.617E-11
         2970.,   6.268E-11
         2972.,   6.657E-11
         2975.,   6.861E-11
         2978.,   6.896E-11
         2980.,   7.603E-11
         2983.,   8.367E-11
         2985.,   8.908E-11
         2987.,   9.468E-11
         2990.,   1.013E-10
         2993.,   1.045E-10
         2995.,   1.049E-10
         2998.,   1.012E-10
         3000.,   9.730E-11
         3003.,   9.511E-11
         3005.,   9.429E-11
         3007.,   9.637E-11
         3010.,   9.678E-11
         3012.,   9.641E-11
         3015.,   9.203E-11
         3018.,   8.499E-11
         3020.,   8.086E-11
         3023.,   7.930E-11
         3025.,   8.322E-11
         3027.,   9.031E-11
         3030.,   1.075E-10
         3032.,   1.215E-10
         3035.,   1.333E-10
         3038.,   1.322E-10
         3040.,   1.312E-10
         3043.,   1.222E-10
         3045.,   1.155E-10
         3048.,   1.135E-10
         3050.,   1.137E-10
         3052.,   1.144E-10
         3055.,   1.098E-10
         3058.,   1.020E-10
         3060.,   8.678E-11
         3063.,   7.839E-11
         3065.,   7.739E-11
         3067.,   8.077E-11
         3070.,   9.071E-11
         3073.,   1.007E-10
         3075.,   1.097E-10
         3077.,   1.116E-10
         3080.,   1.138E-10
         3083.,   1.248E-10
         3085.,   1.308E-10
         3087.,   1.305E-10
         3090.,   1.302E-10
         3092.,   1.296E-10
         3095.,   1.263E-10
         3098.,   1.246E-10
         3100.,   1.356E-10
         3103.,   1.467E-10
         3105.,   1.592E-10
         3107.,   1.741E-10
         3110.,   1.915E-10
         3112.,   1.931E-10
         3115.,   1.925E-10
         3118.,   1.821E-10
         3120.,   1.679E-10
         3123.,   1.543E-10
         3125.,   1.459E-10
         3127.,   1.423E-10
         3130.,   1.377E-10
         3132.,   1.317E-10
         3135.,   1.177E-10
         3138.,   1.037E-10
         3140.,   9.435E-11
         3143.,   8.993E-11
         3145.,   1.112E-10
         3147.,   1.364E-10
         3150.,   1.647E-10
         3152.,   1.759E-10
         3155.,   1.863E-10
         3157.,   1.805E-10
         3160.,   1.676E-10
         3163.,   1.421E-10
         3165.,   1.266E-10
         3167.,   1.178E-10
         3170.,   1.085E-10
         3173.,   9.892E-11
         3175.,   1.296E-10
         3177.,   1.520E-10
         3180.,   1.491E-10
         3183.,   1.536E-10
         3185.,   1.813E-10
         3187.,   1.799E-10
         3190.,   1.636E-10
         3192.,   1.838E-10
         3195.,   2.040E-10
         3198.,   2.082E-10
         3200.,   2.177E-10
         3202.,   2.151E-10
         3205.,   2.126E-10
         3208.,   2.101E-10
         3210.,   2.075E-10
         3212.,   2.050E-10
         3215.,   2.025E-10
         3217.,   1.999E-10
         3220.,   1.974E-10
         3223.,   2.045E-10
         3225.,   2.116E-10
         3227.,   2.186E-10
         3230.,   2.257E-10
         3233.,   2.328E-10
         3235.,   2.399E-10
         3237.,   2.470E-10
         3240.,   2.540E-10
         3260.,   2.278E-10
         3270.,   2.128E-10
         3280.,   2.343E-10
         3290.,   2.515E-10
         3300.,   2.656E-10
         3310.,   2.744E-10
         3320.,   2.839E-10
         3330.,   2.920E-10
         3340.,   3.173E-10
         3350.,   3.292E-10
         3360.,   2.953E-10
         3370.,   2.888E-10
         3380.,   3.406E-10
         3390.,   3.737E-10
         3400.,   3.849E-10
         3410.,   3.831E-10
         3420.,   3.935E-10
         3430.,   3.718E-10
         3440.,   2.881E-10
         3450.,   3.245E-10
         3460.,   3.487E-10
         3470.,   3.546E-10
         3480.,   3.616E-10
         3490.,   3.860E-10
         3500.,   4.321E-10
         3510.,   4.672E-10
         3520.,   3.765E-10
         3530.,   4.676E-10
         3540.,   5.754E-10
         3550.,   4.855E-10
         3560.,   3.779E-10
         3570.,   2.825E-10
         3580.,   2.870E-10
         3590.,   3.434E-10
         3600.,   3.436E-10
         3610.,   3.475E-10
         3620.,   4.044E-10
         3630.,   4.331E-10
         3640.,   3.953E-10
         3650.,   4.436E-10
         3660.,   5.747E-10
         3670.,   5.141E-10
         3680.,   4.560E-10
         3690.,   5.116E-10
         3700.,   4.904E-10
         3710.,   3.811E-10
         3720.,   3.807E-10
         3730.,   3.436E-10
         3740.,   2.881E-10
         3750.,   3.548E-10
         3760.,   4.624E-10
         3770.,   5.055E-10
         3780.,   5.286E-10
         3790.,   4.890E-10
         3800.,   4.975E-10
         3810.,   4.365E-10
         3820.,   3.481E-10
         3830.,   3.628E-10
         3840.,   4.544E-10
         3850.,   4.286E-10
         3860.,   4.146E-10
         3870.,   4.305E-10
         3880.,   4.038E-10
         3890.,   4.432E-10
         3900.,   4.754E-10
         3910.,   5.103E-10
         3920.,   4.525E-10
         3930.,   4.149E-10
         3940.,   4.854E-10
         3950.,   4.996E-10
         3960.,   4.756E-10
         3970.,   5.767E-10
         3980.,   7.969E-10
         3990.,   8.564E-10
         4000.,   9.027E-10
         4010.,    1.022E-9
         4020.,   9.584E-10
         4030.,   9.585E-10
         4040.,    1.025E-9
         4050.,    1.042E-9
         4060.,    1.036E-9
         4070.,    1.070E-9
         4080.,    1.247E-9
         4090.,    1.217E-9
         4100.,    1.130E-9
         4110.,    1.185E-9
         4120.,    1.188E-9
         4130.,    1.181E-9
         4140.,    1.182E-9
         4150.,    1.277E-9
         4160.,    1.214E-9
         4170.,    1.209E-9
         4180.,    1.261E-9
         4190.,    1.159E-9
         4200.,    1.215E-9
         4210.,    1.098E-9
         4220.,   7.127E-10
         4230.,   8.229E-10
         4240.,    1.070E-9
         4250.,    1.031E-9
         4260.,    1.095E-9
         4270.,    1.126E-9
         4280.,    1.129E-9
         4290.,    1.102E-9
         4300.,    1.196E-9
         4310.,    1.361E-9
         4320.,    1.590E-9
         4330.,    1.610E-9
         4340.,    1.679E-9
         4350.,    1.802E-9
         4360.,    1.915E-9
         4370.,    1.564E-9
         4380.,    1.476E-9
         4390.,    1.674E-9
         4400.,    1.741E-9
         4410.,    1.789E-9
         4420.,    1.832E-9
         4430.,    1.864E-9
         4440.,    2.023E-9
         4450.,    1.830E-9
         4460.,    2.051E-9
         4470.,    2.291E-9
         4480.,    2.323E-9
         4490.,    2.408E-9
