wavelength, flux
          229.,          0.
          234.,          0.
          243.,          0.
          252.,          0.
          256.,          0.
          260.,          0.
          266.,          0.
          275.,          0.
          283.,          0.
          293.,          0.
          301.,          0.
          309.,          0.
          325.,          0.
          342.,          0.
          351.,          0.
          356.,          0.
          365.,          0.
          375.,          0.
          384.,          0.
          400.,          0.
          415.,          0.
          425.,          0.
          445.,          0.
          472.,          0.
          494.,          0.
          506.,          0.
          516.,          0.
          540.,          0.
          564.,          0.
          587.,          0.
          612.,          0.
          640.,          0.
          671.,          0.
          705.,          0.
          736.,          0.
          770.,          0.
          810.,          0.
          850.,          0.
          890.,          0.
          920.,          0.
          940.,          0.
          962.,          0.
          987.,          0.
         1012.,          0.
         1037.,          0.
         1062.,          0.
         1087.,          0.
         1112.,          0.
         1120.,          0.
         1140.,          0.
         1160.,          0.
         1180.,          0.
         1200.,          0.
         1220.,          0.
         1240.,          0.
         1260.,          0.
         1280.,          0.
         1300.,          0.
         1320.,          0.
         1340.,          0.
         1360.,          0.
         1380.,          0.
         1400.,          0.
         1420.,          0.
         1440.,          0.
         1460.,          0.
         1480.,          0.
         1500.,          0.
         1520.,          0.
         1540.,          0.
         1560.,          0.
         1580.,          0.
         1600.,          0.
         1620.,          0.
         1640.,          0.
         1660.,          0.
         1680.,          0.
         1700.,          0.
         1720.,          0.
         1740.,          0.
         1760.,          0.
         1780.,          0.
         1800.,          0.
         1820.,          0.
         1840.,          0.
         1860.,          0.
         1880.,          0.
         1900.,          0.
         1920.,          0.
         1940.,          0.
         1960.,          0.
         1980.,          0.
         2000.,   1.608E-12
         2002.,   1.608E-12
         2005.,   1.936E-12
         2008.,   1.604E-12
         2010.,   2.859E-12
         2012.,   3.286E-12
         2015.,   3.060E-12
         2018.,   2.897E-12
         2020.,   2.803E-12
         2022.,   1.474E-12
         2025.,   5.627E-13
         2027.,   1.155E-12
         2030.,   1.620E-12
         2032.,   1.573E-12
         2035.,   2.139E-12
         2038.,   3.112E-12
         2040.,   2.686E-12
         2042.,   2.259E-12
         2045.,   2.228E-12
         2048.,   2.445E-12
         2050.,   3.119E-12
         2052.,   3.467E-12
         2055.,   3.689E-12
         2058.,   3.272E-12
         2060.,   2.498E-12
         2062.,   2.819E-12
         2065.,   3.537E-12
         2067.,   4.878E-12
         2070.,   5.556E-12
         2072.,   4.529E-12
         2075.,   4.131E-12
         2077.,   4.123E-12
         2080.,   5.200E-12
         2082.,   6.276E-12
         2085.,   6.650E-12
         2088.,   6.598E-12
         2090.,   5.908E-12
         2092.,   5.521E-12
         2095.,   5.212E-12
         2098.,   4.992E-12
         2100.,   4.743E-12
         2102.,   4.012E-12
         2105.,   3.368E-12
         2107.,   2.833E-12
         2110.,   2.017E-12
         2112.,   7.027E-13
         2115.,   1.289E-12
         2118.,   2.345E-12
         2120.,   2.717E-12
         2122.,   3.139E-12
         2125.,   4.149E-12
         2128.,   5.017E-12
         2130.,   5.731E-12
         2133.,   6.147E-12
         2135.,   6.523E-12
         2138.,   6.776E-12
         2140.,   6.735E-12
         2142.,   5.644E-12
         2145.,   4.061E-12
         2147.,   2.150E-12
         2150.,   1.290E-12
         2153.,   1.398E-12
         2155.,   1.687E-12
         2157.,   1.734E-12
         2160.,   9.097E-13
         2162.,   4.324E-13
         2165.,   1.778E-12
         2168.,   2.374E-12
         2170.,   2.382E-12
         2173.,   2.172E-12
         2175.,   1.953E-12
         2177.,   1.603E-12
         2180.,   1.341E-12
         2182.,   1.348E-12
         2185.,   1.115E-12
         2187.,   8.408E-13
         2190.,   5.668E-13
         2193.,   2.929E-13
         2195.,   8.465E-13
         2198.,   1.400E-12
         2200.,   2.153E-12
         2202.,   2.728E-12
         2205.,   2.685E-12
         2208.,   2.716E-12
         2210.,   2.790E-12
         2213.,   2.331E-12
         2215.,   1.456E-12
         2218.,   1.527E-12
         2220.,   1.346E-12
         2222.,   6.450E-13
         2225.,   7.118E-14
         2227.,   1.068E-13
         2230.,   1.423E-13
         2233.,   1.779E-13
         2235.,   2.135E-13
         2237.,   2.491E-13
         2240.,   2.739E-13
         2242.,   8.583E-13
         2245.,   2.282E-12
         2248.,   2.977E-12
         2250.,   3.389E-12
         2253.,   3.922E-12
         2255.,   4.544E-12
         2257.,   5.683E-12
         2260.,   6.074E-12
         2262.,   5.511E-12
         2265.,   5.049E-12
         2267.,   4.765E-12
         2270.,   4.925E-12
         2273.,   5.237E-12
         2275.,   5.621E-12
         2277.,   5.945E-12
         2280.,   5.571E-12
         2282.,   5.016E-12
         2285.,   4.265E-12
         2288.,   3.332E-12
         2290.,   2.375E-12
         2293.,   2.020E-12
         2295.,   1.778E-12
         2298.,   1.265E-12
         2300.,   1.031E-12
         2302.,   1.056E-12
         2305.,   1.217E-12
         2307.,   1.551E-12
         2310.,   1.546E-12
         2313.,   1.564E-12
         2315.,   1.859E-12
         2317.,   2.225E-12
         2320.,   2.961E-12
         2322.,   4.245E-12
         2325.,   5.961E-12
         2327.,   6.912E-12
         2330.,   7.831E-12
         2333.,   8.562E-12
         2335.,   8.894E-12
         2337.,   8.266E-12
         2340.,   7.710E-12
         2342.,   7.201E-12
         2345.,   6.031E-12
         2347.,   4.250E-12
         2350.,   3.217E-12
         2353.,   2.610E-12
         2355.,   2.771E-12
         2357.,   3.260E-12
         2360.,   4.789E-12
         2362.,   5.377E-12
         2365.,   5.476E-12
         2368.,   6.523E-12
         2370.,   7.570E-12
         2373.,   7.309E-12
         2375.,   7.606E-12
         2377.,   8.989E-12
         2380.,   8.744E-12
         2383.,   7.986E-12
         2385.,   7.488E-12
         2387.,   7.165E-12
         2390.,   7.149E-12
         2393.,   7.134E-12
         2395.,   7.221E-12
         2397.,   6.558E-12
         2400.,   4.281E-12
         2403.,   3.788E-12
         2405.,   3.990E-12
         2407.,   2.602E-12
         2410.,   4.374E-13
         2413.,   1.130E-12
         2415.,   1.935E-12
         2417.,   2.883E-12
         2420.,   4.226E-12
         2423.,   6.271E-12
         2425.,   6.889E-12
         2427.,   7.049E-12
         2430.,   7.134E-12
         2433.,   7.220E-12
         2435.,   5.620E-12
         2437.,   4.352E-12
         2440.,   3.582E-12
         2443.,   3.953E-12
         2445.,   4.609E-12
         2448.,   5.499E-12
         2450.,   6.396E-12
         2452.,   6.671E-12
         2455.,   7.161E-12
         2457.,   7.848E-12
         2460.,   8.498E-12
         2463.,   9.101E-12
         2465.,   9.643E-12
         2467.,   9.760E-12
         2470.,   8.571E-12
         2473.,   7.651E-12
         2475.,   8.143E-12
         2477.,   8.363E-12
         2480.,   8.288E-12
         2483.,   8.985E-12
         2485.,   9.787E-12
         2487.,   7.891E-12
         2490.,   6.041E-12
         2493.,   7.070E-12
         2495.,   7.040E-12
         2497.,   6.303E-12
         2500.,   6.423E-12
         2502.,   7.334E-12
         2505.,   7.338E-12
         2507.,   7.451E-12
         2510.,   7.960E-12
         2513.,   8.359E-12
         2515.,   8.403E-12
         2518.,   7.565E-12
         2520.,   6.232E-12
         2522.,   5.733E-12
         2525.,   5.269E-12
         2527.,   6.396E-12
         2530.,   7.844E-12
         2532.,   9.561E-12
         2535.,   1.060E-11
         2538.,   1.131E-11
         2540.,   1.149E-11
         2542.,   1.131E-11
         2545.,   1.185E-11
         2548.,   1.210E-11
         2550.,   1.192E-11
         2552.,   1.165E-11
         2555.,   1.118E-11
         2558.,   1.101E-11
         2560.,   1.104E-11
         2562.,   1.169E-11
         2565.,   1.234E-11
         2567.,   1.305E-11
         2570.,   1.330E-11
         2573.,   1.276E-11
         2575.,   1.098E-11
         2577.,   8.815E-12
         2580.,   7.222E-12
         2582.,   5.992E-12
         2585.,   5.818E-12
         2587.,   6.658E-12
         2590.,   8.595E-12
         2593.,   9.884E-12
         2595.,   1.020E-11
         2598.,   1.000E-11
         2600.,   9.678E-12
         2602.,   8.571E-12
         2605.,   6.292E-12
         2607.,   6.780E-12
         2610.,   7.961E-12
         2612.,   9.626E-12
         2615.,   1.172E-11
         2618.,   1.555E-11
         2620.,   1.742E-11
         2622.,   1.748E-11
         2625.,   1.579E-11
         2627.,   1.189E-11
         2630.,   1.253E-11
         2633.,   1.451E-11
         2635.,   1.798E-11
         2638.,   2.219E-11
         2640.,   3.037E-11
         2642.,   3.171E-11
         2645.,   2.769E-11
         2647.,   2.638E-11
         2650.,   2.545E-11
         2652.,   2.306E-11
         2655.,   2.177E-11
         2657.,   2.636E-11
         2660.,   2.801E-11
         2662.,   2.770E-11
         2665.,   2.773E-11
         2667.,   2.808E-11
         2670.,   2.747E-11
         2673.,   2.677E-11
         2675.,   2.796E-11
         2677.,   2.834E-11
         2680.,   2.502E-11
         2682.,   2.547E-11
         2685.,   2.804E-11
         2687.,   2.788E-11
         2690.,   2.559E-11
         2692.,   3.031E-11
         2695.,   3.295E-11
         2698.,   2.949E-11
         2700.,   2.622E-11
         2702.,   2.371E-11
         2705.,   2.352E-11
         2707.,   2.486E-11
         2710.,   2.606E-11
         2713.,   2.726E-11
         2715.,   2.967E-11
         2718.,   2.880E-11
         2720.,   2.074E-11
         2722.,   1.874E-11
         2725.,   1.910E-11
         2727.,   1.973E-11
         2730.,   2.066E-11
         2732.,   2.550E-11
         2735.,   2.769E-11
         2737.,   2.652E-11
         2740.,   2.590E-11
         2742.,   2.626E-11
         2745.,   2.604E-11
         2747.,   2.568E-11
         2750.,   2.689E-11
         2753.,   2.810E-11
         2755.,   3.242E-11
         2758.,   3.536E-11
         2760.,   3.623E-11
         2762.,   3.645E-11
         2765.,   3.651E-11
         2767.,   3.730E-11
         2770.,   3.836E-11
         2772.,   3.938E-11
         2775.,   4.095E-11
         2778.,   4.304E-11
         2780.,   4.177E-11
         2782.,   3.623E-11
         2785.,   3.674E-11
         2787.,   4.153E-11
         2790.,   6.269E-11
         2793.,   8.477E-11
         2795.,   1.172E-10
         2798.,   1.495E-10
         2800.,   1.816E-10
         2802.,   1.695E-10
         2805.,   1.515E-10
         2807.,   1.211E-10
         2810.,   8.788E-11
         2812.,   5.571E-11
         2815.,   3.919E-11
         2817.,   3.308E-11
         2820.,   3.255E-11
         2823.,   3.718E-11
         2825.,   3.742E-11
         2827.,   3.780E-11
         2830.,   3.927E-11
         2833.,   4.002E-11
         2835.,   3.845E-11
         2838.,   3.886E-11
         2840.,   4.082E-11
         2842.,   4.406E-11
         2845.,   4.735E-11
         2847.,   4.875E-11
         2850.,   5.041E-11
         2852.,   5.346E-11
         2855.,   5.275E-11
         2858.,   5.027E-11
         2860.,   4.943E-11
         2862.,   4.967E-11
         2865.,   4.987E-11
         2867.,   5.034E-11
         2870.,   5.124E-11
         2873.,   5.378E-11
         2875.,   5.981E-11
         2878.,   5.823E-11
         2880.,   5.369E-11
         2883.,   5.234E-11
         2885.,   5.279E-11
         2887.,   4.969E-11
         2890.,   4.834E-11
         2892.,   5.039E-11
         2895.,   5.275E-11
         2898.,   5.591E-11
         2900.,   5.481E-11
         2903.,   5.208E-11
         2905.,   5.370E-11
         2907.,   5.533E-11
         2910.,   6.000E-11
         2913.,   6.525E-11
         2915.,   7.137E-11
         2918.,   7.403E-11
         2920.,   7.583E-11
         2923.,   7.296E-11
         2925.,   6.934E-11
         2927.,   7.360E-11
         2930.,   7.702E-11
         2932.,   7.940E-11
         2935.,   8.282E-11
         2938.,   8.812E-11
         2940.,   8.001E-11
         2942.,   6.849E-11
         2945.,   6.131E-11
         2948.,   5.424E-11
         2950.,   4.838E-11
         2952.,   5.106E-11
         2955.,   6.299E-11
         2958.,   6.519E-11
         2960.,   6.605E-11
         2963.,   6.441E-11
         2965.,   6.043E-11
         2967.,   4.953E-11
         2970.,   4.691E-11
         2972.,   4.982E-11
         2975.,   5.135E-11
         2978.,   5.161E-11
         2980.,   5.690E-11
         2983.,   6.262E-11
         2985.,   6.666E-11
         2987.,   7.086E-11
         2990.,   7.582E-11
         2993.,   7.819E-11
         2995.,   7.853E-11
         2998.,   7.574E-11
         3000.,   7.282E-11
         3003.,   7.119E-11
         3005.,   7.057E-11
         3007.,   7.213E-11
         3010.,   7.243E-11
         3012.,   7.215E-11
         3015.,   6.888E-11
         3018.,   6.361E-11
         3020.,   6.051E-11
         3023.,   5.935E-11
         3025.,   6.228E-11
         3027.,   6.759E-11
         3030.,   8.044E-11
         3032.,   9.095E-11
         3035.,   9.974E-11
         3038.,   9.896E-11
         3040.,   9.817E-11
         3043.,   9.143E-11
         3045.,   8.644E-11
         3048.,   8.497E-11
         3050.,   8.506E-11
         3052.,   8.564E-11
         3055.,   8.217E-11
         3058.,   7.633E-11
         3060.,   6.495E-11
         3063.,   5.867E-11
         3065.,   5.792E-11
         3067.,   6.044E-11
         3070.,   6.789E-11
         3073.,   7.535E-11
         3075.,   8.209E-11
         3077.,   8.351E-11
         3080.,   8.519E-11
         3083.,   9.341E-11
         3085.,   9.792E-11
         3087.,   9.770E-11
         3090.,   9.742E-11
         3092.,   9.701E-11
         3095.,   9.454E-11
         3098.,   9.324E-11
         3100.,   1.015E-10
         3103.,   1.098E-10
         3105.,   1.192E-10
         3107.,   1.303E-10
         3110.,   1.433E-10
         3112.,   1.445E-10
         3115.,   1.441E-10
         3118.,   1.363E-10
         3120.,   1.257E-10
         3123.,   1.155E-10
         3125.,   1.092E-10
         3127.,   1.065E-10
         3130.,   1.030E-10
         3132.,   9.856E-11
         3135.,   8.809E-11
         3138.,   7.758E-11
         3140.,   7.062E-11
         3143.,   6.731E-11
         3145.,   8.321E-11
         3147.,   1.021E-10
         3150.,   1.233E-10
         3152.,   1.316E-10
         3155.,   1.394E-10
         3157.,   1.351E-10
         3160.,   1.255E-10
         3163.,   1.064E-10
         3165.,   9.475E-11
         3167.,   8.813E-11
         3170.,   8.122E-11
         3173.,   7.403E-11
         3175.,   9.702E-11
         3177.,   1.137E-10
         3180.,   1.116E-10
         3183.,   1.149E-10
         3185.,   1.357E-10
         3187.,   1.347E-10
         3190.,   1.224E-10
         3192.,   1.376E-10
         3195.,   1.527E-10
         3198.,   1.559E-10
         3200.,   1.629E-10
         3202.,   1.610E-10
         3205.,   1.591E-10
         3208.,   1.572E-10
         3210.,   1.553E-10
         3212.,   1.534E-10
         3215.,   1.515E-10
         3217.,   1.496E-10
         3220.,   1.477E-10
         3223.,   1.530E-10
         3225.,   1.583E-10
         3227.,   1.636E-10
         3230.,   1.689E-10
         3233.,   1.742E-10
         3235.,   1.795E-10
         3237.,   1.848E-10
         3240.,   1.901E-10
         3260.,   1.388E-10
         3270.,   1.629E-10
         3280.,   1.725E-10
         3290.,   1.900E-10
         3300.,   1.873E-10
         3310.,   2.127E-10
         3320.,   2.297E-10
         3330.,   2.278E-10
         3340.,   2.383E-10
         3350.,   2.376E-10
         3360.,   2.176E-10
         3370.,   2.259E-10
         3380.,   2.550E-10
         3390.,   2.724E-10
         3400.,   3.075E-10
         3410.,   2.823E-10
         3420.,   2.870E-10
         3430.,   2.726E-10
         3440.,   2.399E-10
         3450.,   2.731E-10
         3460.,   2.921E-10
         3470.,   2.888E-10
         3480.,   3.053E-10
         3490.,   3.075E-10
         3500.,   3.486E-10
         3510.,   3.609E-10
         3520.,   3.415E-10
         3530.,   3.595E-10
         3540.,   4.380E-10
         3550.,   4.446E-10
         3560.,   3.420E-10
         3570.,   3.102E-10
         3580.,   2.928E-10
         3590.,   3.043E-10
         3600.,   3.441E-10
         3610.,   3.378E-10
         3620.,   3.791E-10
         3630.,   3.802E-10
         3640.,   3.512E-10
         3650.,   3.880E-10
         3660.,   4.435E-10
         3670.,   4.088E-10
         3680.,   4.159E-10
         3690.,   4.299E-10
         3700.,   4.035E-10
         3710.,   3.536E-10
         3720.,   3.261E-10
         3730.,   3.178E-10
         3740.,   2.972E-10
         3750.,   3.457E-10
         3760.,   4.017E-10
         3770.,   4.483E-10
         3780.,   4.616E-10
         3790.,   4.705E-10
         3800.,   4.776E-10
         3810.,   4.599E-10
         3820.,   3.682E-10
         3830.,   3.688E-10
         3840.,   4.162E-10
         3850.,   4.221E-10
         3860.,   4.096E-10
         3870.,   4.581E-10
         3880.,   4.479E-10
         3890.,   4.397E-10
         3900.,   4.964E-10
         3910.,   5.198E-10
         3920.,   4.616E-10
         3930.,   4.561E-10
         3940.,   4.661E-10
         3950.,   5.133E-10
         3960.,   4.897E-10
         3970.,   5.675E-10
         3980.,   7.494E-10
         3990.,   8.107E-10
         4000.,   8.467E-10
         4010.,   9.335E-10
         4020.,   8.968E-10
         4030.,   8.813E-10
         4040.,   8.935E-10
         4050.,   9.124E-10
         4060.,   9.625E-10
         4070.,   9.082E-10
         4080.,   9.869E-10
         4090.,   9.753E-10
         4100.,   9.398E-10
         4110.,   9.712E-10
         4120.,   9.890E-10
         4130.,    1.004E-9
         4140.,   9.677E-10
         4150.,    1.049E-9
         4160.,    1.021E-9
         4170.,    1.035E-9
         4180.,    1.017E-9
         4190.,    1.029E-9
         4200.,    1.001E-9
         4210.,   8.469E-10
         4220.,   6.470E-10
         4230.,   6.414E-10
         4240.,   8.287E-10
         4250.,   8.099E-10
         4260.,   8.482E-10
         4270.,   8.973E-10
         4280.,   8.735E-10
         4290.,   9.207E-10
         4300.,   9.091E-10
         4310.,    1.025E-9
         4320.,    1.097E-9
         4330.,    1.152E-9
         4340.,    1.237E-9
         4350.,    1.215E-9
         4360.,    1.284E-9
         4370.,    1.304E-9
         4380.,    1.259E-9
         4390.,    1.305E-9
         4400.,    1.345E-9
         4410.,    1.423E-9
         4420.,    1.496E-9
         4430.,    1.494E-9
         4440.,    1.572E-9
         4450.,    1.565E-9
         4460.,    1.647E-9
         4470.,    1.867E-9
         4480.,    1.912E-9
         4490.,    1.972E-9
