wavelength, flux
          229.,          0.
          234.,          0.
          243.,          0.
          252.,          0.
          256.,          0.
          260.,          0.
          266.,          0.
          275.,          0.
          283.,          0.
          293.,          0.
          301.,          0.
          309.,          0.
          325.,          0.
          342.,          0.
          351.,          0.
          356.,          0.
          365.,          0.
          375.,          0.
          384.,          0.
          400.,          0.
          415.,          0.
          425.,          0.
          445.,          0.
          472.,          0.
          494.,          0.
          506.,          0.
          516.,          0.
          540.,          0.
          564.,          0.
          587.,          0.
          612.,          0.
          640.,          0.
          671.,          0.
          705.,          0.
          736.,          0.
          770.,          0.
          810.,          0.
          850.,          0.
          890.,          0.
          920.,          0.
          940.,          0.
          962.,          0.
          987.,          0.
         1012.,          0.
         1037.,          0.
         1062.,          0.
         1087.,          0.
         1112.,          0.
         1120.,          0.
         1140.,          0.
         1160.,          0.
         1180.,          0.
         1200.,          0.
         1220.,          0.
         1240.,          0.
         1260.,          0.
         1280.,          0.
         1300.,          0.
         1320.,          0.
         1340.,          0.
         1360.,          0.
         1380.,          0.
         1400.,          0.
         1420.,          0.
         1440.,          0.
         1460.,          0.
         1480.,          0.
         1500.,          0.
         1520.,          0.
         1540.,          0.
         1560.,          0.
         1580.,          0.
         1600.,          0.
         1620.,          0.
         1640.,          0.
         1660.,          0.
         1680.,          0.
         1700.,          0.
         1720.,          0.
         1740.,          0.
         1760.,          0.
         1780.,          0.
         1800.,          0.
         1820.,          0.
         1840.,          0.
         1860.,          0.
         1880.,          0.
         1900.,          0.
         1920.,          0.
         1940.,          0.
         1960.,          0.
         1980.,          0.
         2000.,   1.592E-12
         2002.,   1.592E-12
         2005.,   1.917E-12
         2008.,   1.588E-12
         2010.,   2.830E-12
         2012.,   3.252E-12
         2015.,   3.029E-12
         2018.,   2.868E-12
         2020.,   2.774E-12
         2022.,   1.459E-12
         2025.,   5.570E-13
         2027.,   1.143E-12
         2030.,   1.603E-12
         2032.,   1.557E-12
         2035.,   2.117E-12
         2038.,   3.081E-12
         2040.,   2.659E-12
         2042.,   2.237E-12
         2045.,   2.205E-12
         2048.,   2.420E-12
         2050.,   3.088E-12
         2052.,   3.432E-12
         2055.,   3.651E-12
         2058.,   3.239E-12
         2060.,   2.472E-12
         2062.,   2.791E-12
         2065.,   3.501E-12
         2067.,   4.828E-12
         2070.,   5.499E-12
         2072.,   4.483E-12
         2075.,   4.089E-12
         2077.,   4.081E-12
         2080.,   5.147E-12
         2082.,   6.212E-12
         2085.,   6.583E-12
         2088.,   6.532E-12
         2090.,   5.848E-12
         2092.,   5.465E-12
         2095.,   5.159E-12
         2098.,   4.942E-12
         2100.,   4.695E-12
         2102.,   3.972E-12
         2105.,   3.334E-12
         2107.,   2.804E-12
         2110.,   1.996E-12
         2112.,   6.955E-13
         2115.,   1.276E-12
         2118.,   2.322E-12
         2120.,   2.689E-12
         2122.,   3.107E-12
         2125.,   4.107E-12
         2128.,   4.966E-12
         2130.,   5.673E-12
         2133.,   6.085E-12
         2135.,   6.457E-12
         2138.,   6.707E-12
         2140.,   6.667E-12
         2142.,   5.587E-12
         2145.,   4.020E-12
         2147.,   2.129E-12
         2150.,   1.277E-12
         2153.,   1.384E-12
         2155.,   1.670E-12
         2157.,   1.716E-12
         2160.,   9.004E-13
         2162.,   4.280E-13
         2165.,   1.760E-12
         2168.,   2.350E-12
         2170.,   2.357E-12
         2173.,   2.150E-12
         2175.,   1.933E-12
         2177.,   1.587E-12
         2180.,   1.327E-12
         2182.,   1.334E-12
         2185.,   1.103E-12
         2187.,   8.322E-13
         2190.,   5.611E-13
         2193.,   2.899E-13
         2195.,   8.380E-13
         2198.,   1.386E-12
         2200.,   2.131E-12
         2202.,   2.700E-12
         2205.,   2.658E-12
         2208.,   2.689E-12
         2210.,   2.761E-12
         2213.,   2.308E-12
         2215.,   1.441E-12
         2218.,   1.512E-12
         2220.,   1.332E-12
         2222.,   6.384E-13
         2225.,   7.046E-14
         2227.,   1.057E-13
         2230.,   1.409E-13
         2233.,   1.761E-13
         2235.,   2.113E-13
         2237.,   2.465E-13
         2240.,   2.711E-13
         2242.,   8.496E-13
         2245.,   2.259E-12
         2248.,   2.947E-12
         2250.,   3.355E-12
         2253.,   3.882E-12
         2255.,   4.498E-12
         2257.,   5.625E-12
         2260.,   6.012E-12
         2262.,   5.455E-12
         2265.,   4.997E-12
         2267.,   4.717E-12
         2270.,   4.875E-12
         2273.,   5.184E-12
         2275.,   5.564E-12
         2277.,   5.885E-12
         2280.,   5.515E-12
         2282.,   4.965E-12
         2285.,   4.222E-12
         2288.,   3.299E-12
         2290.,   2.351E-12
         2293.,   1.999E-12
         2295.,   1.760E-12
         2298.,   1.252E-12
         2300.,   1.021E-12
         2302.,   1.045E-12
         2305.,   1.204E-12
         2307.,   1.535E-12
         2310.,   1.530E-12
         2313.,   1.548E-12
         2315.,   1.840E-12
         2317.,   2.202E-12
         2320.,   2.931E-12
         2322.,   4.202E-12
         2325.,   5.900E-12
         2327.,   6.842E-12
         2330.,   7.752E-12
         2333.,   8.475E-12
         2335.,   8.804E-12
         2337.,   8.182E-12
         2340.,   7.632E-12
         2342.,   7.128E-12
         2345.,   5.970E-12
         2347.,   4.207E-12
         2350.,   3.184E-12
         2353.,   2.584E-12
         2355.,   2.743E-12
         2357.,   3.227E-12
         2360.,   4.740E-12
         2362.,   5.322E-12
         2365.,   5.420E-12
         2368.,   6.457E-12
         2370.,   7.493E-12
         2373.,   7.235E-12
         2375.,   7.529E-12
         2377.,   8.898E-12
         2380.,   8.656E-12
         2383.,   7.905E-12
         2385.,   7.412E-12
         2387.,   7.092E-12
         2390.,   7.076E-12
         2393.,   7.061E-12
         2395.,   7.148E-12
         2397.,   6.491E-12
         2400.,   4.237E-12
         2403.,   3.750E-12
         2405.,   3.949E-12
         2407.,   2.575E-12
         2410.,   4.330E-13
         2413.,   1.118E-12
         2415.,   1.915E-12
         2417.,   2.854E-12
         2420.,   4.184E-12
         2423.,   6.208E-12
         2425.,   6.819E-12
         2427.,   6.977E-12
         2430.,   7.062E-12
         2433.,   7.147E-12
         2435.,   5.563E-12
         2437.,   4.308E-12
         2440.,   3.545E-12
         2443.,   3.912E-12
         2445.,   4.562E-12
         2448.,   5.444E-12
         2450.,   6.331E-12
         2452.,   6.604E-12
         2455.,   7.088E-12
         2457.,   7.768E-12
         2460.,   8.412E-12
         2463.,   9.009E-12
         2465.,   9.545E-12
         2467.,   9.661E-12
         2470.,   8.484E-12
         2473.,   7.573E-12
         2475.,   8.060E-12
         2477.,   8.278E-12
         2480.,   8.204E-12
         2483.,   8.894E-12
         2485.,   9.688E-12
         2487.,   7.811E-12
         2490.,   5.980E-12
         2493.,   6.999E-12
         2495.,   6.969E-12
         2497.,   6.239E-12
         2500.,   6.358E-12
         2502.,   7.260E-12
         2505.,   7.264E-12
         2507.,   7.375E-12
         2510.,   7.880E-12
         2513.,   8.274E-12
         2515.,   8.318E-12
         2518.,   7.489E-12
         2520.,   6.168E-12
         2522.,   5.675E-12
         2525.,   5.216E-12
         2527.,   6.331E-12
         2530.,   7.764E-12
         2532.,   9.463E-12
         2535.,   1.049E-11
         2538.,   1.120E-11
         2540.,   1.138E-11
         2542.,   1.120E-11
         2545.,   1.173E-11
         2548.,   1.198E-11
         2550.,   1.180E-11
         2552.,   1.153E-11
         2555.,   1.107E-11
         2558.,   1.090E-11
         2560.,   1.092E-11
         2562.,   1.157E-11
         2565.,   1.222E-11
         2567.,   1.291E-11
         2570.,   1.316E-11
         2573.,   1.263E-11
         2575.,   1.087E-11
         2577.,   8.726E-12
         2580.,   7.149E-12
         2582.,   5.931E-12
         2585.,   5.759E-12
         2587.,   6.590E-12
         2590.,   8.508E-12
         2593.,   9.784E-12
         2595.,   1.010E-11
         2598.,   9.901E-12
         2600.,   9.579E-12
         2602.,   8.484E-12
         2605.,   6.228E-12
         2607.,   6.711E-12
         2610.,   7.880E-12
         2612.,   9.529E-12
         2615.,   1.160E-11
         2618.,   1.539E-11
         2620.,   1.724E-11
         2622.,   1.730E-11
         2625.,   1.563E-11
         2627.,   1.177E-11
         2630.,   1.241E-11
         2633.,   1.437E-11
         2635.,   1.779E-11
         2638.,   2.197E-11
         2640.,   3.006E-11
         2642.,   3.139E-11
         2645.,   2.741E-11
         2647.,   2.612E-11
         2650.,   2.519E-11
         2652.,   2.283E-11
         2655.,   2.155E-11
         2657.,   2.609E-11
         2660.,   2.773E-11
         2662.,   2.742E-11
         2665.,   2.745E-11
         2667.,   2.780E-11
         2670.,   2.719E-11
         2673.,   2.650E-11
         2675.,   2.767E-11
         2677.,   2.805E-11
         2680.,   2.477E-11
         2682.,   2.521E-11
         2685.,   2.775E-11
         2687.,   2.760E-11
         2690.,   2.534E-11
         2692.,   3.000E-11
         2695.,   3.261E-11
         2698.,   2.919E-11
         2700.,   2.595E-11
         2702.,   2.347E-11
         2705.,   2.328E-11
         2707.,   2.461E-11
         2710.,   2.580E-11
         2713.,   2.699E-11
         2715.,   2.937E-11
         2718.,   2.850E-11
         2720.,   2.053E-11
         2722.,   1.855E-11
         2725.,   1.891E-11
         2727.,   1.953E-11
         2730.,   2.045E-11
         2732.,   2.524E-11
         2735.,   2.741E-11
         2737.,   2.625E-11
         2740.,   2.564E-11
         2742.,   2.599E-11
         2745.,   2.578E-11
         2747.,   2.542E-11
         2750.,   2.662E-11
         2753.,   2.782E-11
         2755.,   3.209E-11
         2758.,   3.500E-11
         2760.,   3.586E-11
         2762.,   3.608E-11
         2765.,   3.614E-11
         2767.,   3.692E-11
         2770.,   3.797E-11
         2772.,   3.898E-11
         2775.,   4.054E-11
         2778.,   4.260E-11
         2780.,   4.135E-11
         2782.,   3.586E-11
         2785.,   3.637E-11
         2787.,   4.110E-11
         2790.,   6.206E-11
         2793.,   8.391E-11
         2795.,   1.161E-10
         2798.,   1.480E-10
         2800.,   1.798E-10
         2802.,   1.678E-10
         2805.,   1.500E-10
         2807.,   1.199E-10
         2810.,   8.699E-11
         2812.,   5.515E-11
         2815.,   3.879E-11
         2817.,   3.274E-11
         2820.,   3.222E-11
         2823.,   3.680E-11
         2825.,   3.704E-11
         2827.,   3.741E-11
         2830.,   3.887E-11
         2833.,   3.961E-11
         2835.,   3.806E-11
         2838.,   3.846E-11
         2840.,   4.041E-11
         2842.,   4.361E-11
         2845.,   4.687E-11
         2847.,   4.825E-11
         2850.,   4.990E-11
         2852.,   5.292E-11
         2855.,   5.221E-11
         2858.,   4.976E-11
         2860.,   4.893E-11
         2862.,   4.917E-11
         2865.,   4.936E-11
         2867.,   4.983E-11
         2870.,   5.072E-11
         2873.,   5.323E-11
         2875.,   5.921E-11
         2878.,   5.764E-11
         2880.,   5.315E-11
         2883.,   5.181E-11
         2885.,   5.225E-11
         2887.,   4.918E-11
         2890.,   4.785E-11
         2892.,   4.988E-11
         2895.,   5.222E-11
         2898.,   5.534E-11
         2900.,   5.425E-11
         2903.,   5.155E-11
         2905.,   5.316E-11
         2907.,   5.476E-11
         2910.,   5.939E-11
         2913.,   6.459E-11
         2915.,   7.065E-11
         2918.,   7.328E-11
         2920.,   7.506E-11
         2923.,   7.222E-11
         2925.,   6.864E-11
         2927.,   7.285E-11
         2930.,   7.624E-11
         2932.,   7.859E-11
         2935.,   8.198E-11
         2938.,   8.722E-11
         2940.,   7.919E-11
         2942.,   6.780E-11
         2945.,   6.069E-11
         2948.,   5.368E-11
         2950.,   4.789E-11
         2952.,   5.055E-11
         2955.,   6.235E-11
         2958.,   6.453E-11
         2960.,   6.538E-11
         2963.,   6.376E-11
         2965.,   5.981E-11
         2967.,   4.902E-11
         2970.,   4.643E-11
         2972.,   4.931E-11
         2975.,   5.083E-11
         2978.,   5.109E-11
         2980.,   5.632E-11
         2983.,   6.199E-11
         2985.,   6.599E-11
         2987.,   7.014E-11
         2990.,   7.505E-11
         2993.,   7.740E-11
         2995.,   7.773E-11
         2998.,   7.497E-11
         3000.,   7.209E-11
         3003.,   7.046E-11
         3005.,   6.985E-11
         3007.,   7.139E-11
         3010.,   7.170E-11
         3012.,   7.142E-11
         3015.,   6.818E-11
         3018.,   6.296E-11
         3020.,   5.990E-11
         3023.,   5.875E-11
         3025.,   6.165E-11
         3027.,   6.690E-11
         3030.,   7.963E-11
         3032.,   9.003E-11
         3035.,   9.873E-11
         3038.,   9.795E-11
         3040.,   9.718E-11
         3043.,   9.051E-11
         3045.,   8.556E-11
         3048.,   8.411E-11
         3050.,   8.419E-11
         3052.,   8.477E-11
         3055.,   8.134E-11
         3058.,   7.555E-11
         3060.,   6.429E-11
         3063.,   5.807E-11
         3065.,   5.733E-11
         3067.,   5.983E-11
         3070.,   6.720E-11
         3073.,   7.459E-11
         3075.,   8.126E-11
         3077.,   8.266E-11
         3080.,   8.433E-11
         3083.,   9.246E-11
         3085.,   9.692E-11
         3087.,   9.671E-11
         3090.,   9.643E-11
         3092.,   9.603E-11
         3095.,   9.358E-11
         3098.,   9.229E-11
         3100.,   1.004E-10
         3103.,   1.087E-10
         3105.,   1.180E-10
         3107.,   1.290E-10
         3110.,   1.419E-10
         3112.,   1.430E-10
         3115.,   1.426E-10
         3118.,   1.349E-10
         3120.,   1.244E-10
         3123.,   1.143E-10
         3125.,   1.081E-10
         3127.,   1.054E-10
         3130.,   1.020E-10
         3132.,   9.756E-11
         3135.,   8.719E-11
         3138.,   7.679E-11
         3140.,   6.990E-11
         3143.,   6.663E-11
         3145.,   8.237E-11
         3147.,   1.010E-10
         3150.,   1.220E-10
         3152.,   1.303E-10
         3155.,   1.380E-10
         3157.,   1.337E-10
         3160.,   1.242E-10
         3163.,   1.053E-10
         3165.,   9.379E-11
         3167.,   8.724E-11
         3170.,   8.039E-11
         3173.,   7.328E-11
         3175.,   9.603E-11
         3177.,   1.126E-10
         3180.,   1.105E-10
         3183.,   1.138E-10
         3185.,   1.343E-10
         3187.,   1.333E-10
         3190.,   1.212E-10
         3192.,   1.362E-10
         3195.,   1.511E-10
         3198.,   1.543E-10
         3200.,   1.613E-10
         3202.,   1.594E-10
         3205.,   1.575E-10
         3208.,   1.556E-10
         3210.,   1.537E-10
         3212.,   1.519E-10
         3215.,   1.500E-10
         3217.,   1.481E-10
         3220.,   1.462E-10
         3223.,   1.515E-10
         3225.,   1.567E-10
         3227.,   1.620E-10
         3230.,   1.672E-10
         3233.,   1.725E-10
         3235.,   1.777E-10
         3237.,   1.830E-10
         3240.,   1.882E-10
         3260.,   1.687E-10
         3270.,   9.664E-11
         3280.,   1.523E-10
         3290.,   1.655E-10
         3300.,   1.685E-10
         3310.,   1.510E-10
         3320.,   1.688E-10
         3330.,   2.031E-10
         3340.,   2.773E-10
         3350.,   1.834E-10
         3360.,   1.698E-10
         3370.,   2.528E-10
         3380.,   2.388E-10
         3390.,   1.362E-10
         3400.,   2.469E-10
         3410.,   2.011E-10
         3420.,   2.803E-10
         3430.,   2.946E-10
         3440.,   2.363E-10
         3450.,   2.045E-10
         3460.,   2.857E-10
         3470.,   2.944E-10
         3480.,   2.967E-10
         3490.,   3.061E-10
         3500.,   3.167E-10
         3510.,   2.969E-10
         3520.,   3.185E-10
         3530.,   3.381E-10
         3540.,   3.751E-10
         3550.,   3.864E-10
         3560.,   3.205E-10
         3570.,   3.334E-10
         3580.,   3.204E-10
         3590.,   3.069E-10
         3600.,   3.112E-10
         3610.,   2.764E-10
         3620.,   2.920E-10
         3630.,   3.957E-10
         3640.,   3.673E-10
         3650.,   3.342E-10
         3660.,   4.396E-10
         3670.,   3.546E-10
         3680.,   3.627E-10
         3690.,   4.023E-10
         3700.,   4.854E-10
         3710.,   3.899E-10
         3720.,   3.928E-10
         3730.,   3.766E-10
         3740.,   2.722E-10
         3750.,   3.343E-10
         3760.,   4.231E-10
         3770.,   4.295E-10
         3780.,   4.752E-10
         3790.,   4.213E-10
         3800.,   4.419E-10
         3810.,   4.566E-10
         3820.,   4.299E-10
         3830.,   3.683E-10
         3840.,   3.750E-10
         3850.,   3.955E-10
         3860.,   4.600E-10
         3870.,   4.979E-10
         3880.,   5.465E-10
         3890.,   4.670E-10
         3900.,   4.259E-10
         3910.,   5.659E-10
         3920.,   5.718E-10
         3930.,   4.926E-10
         3940.,   4.692E-10
         3950.,   5.521E-10
         3960.,   6.057E-10
         3970.,   6.054E-10
         3980.,   7.486E-10
         3990.,   8.606E-10
         4000.,   8.823E-10
         4010.,    1.007E-9
         4020.,    1.054E-9
         4030.,   9.668E-10
         4040.,   9.069E-10
         4050.,   9.196E-10
         4060.,   9.219E-10
         4070.,   9.540E-10
         4080.,    1.003E-9
         4090.,    1.001E-9
         4100.,   9.769E-10
         4110.,   9.149E-10
         4120.,   9.978E-10
         4130.,    1.077E-9
         4140.,    1.035E-9
         4150.,    1.181E-9
         4160.,    1.178E-9
         4170.,    1.225E-9
         4180.,    1.116E-9
         4190.,    1.087E-9
         4200.,   9.780E-10
         4210.,   7.527E-10
         4220.,   5.710E-10
         4230.,   6.344E-10
         4240.,   8.015E-10
         4250.,   8.157E-10
         4260.,   8.993E-10
         4270.,   9.308E-10
         4280.,   9.037E-10
         4290.,   9.399E-10
         4300.,   9.185E-10
         4310.,    1.041E-9
         4320.,    1.056E-9
         4330.,    1.207E-9
         4340.,    1.158E-9
         4350.,    1.352E-9
         4360.,    1.262E-9
         4370.,    1.286E-9
         4380.,    1.130E-9
         4390.,    1.372E-9
         4400.,    1.352E-9
         4410.,    1.465E-9
         4420.,    1.508E-9
         4430.,    1.525E-9
         4440.,    1.530E-9
         4450.,    1.619E-9
         4460.,    1.676E-9
         4470.,    1.777E-9
         4480.,    1.854E-9
         4490.,    1.974E-9
